# XDI/1.0 Athena/0.9.26
# Element.edge:                  K
# Element.symbol:                Fe
# Column.1:                      energy eV
# Column.2:                      norm
# Column.3:                      nbkg
# Column.4:                      flat
# Column.5:                      fbkg
# Column.6:                      nder
# Column.7:                      nsec
# Athena.e0:                     7120.140
# Athena.eshift:                 -0.714
# Athena.rbkg:                   1
# Athena.importance:             1
# Athena.standard:               None
# Athena.bkg_kweight:            2
# Athena.edge_step:              0.2768907
# Athena.fixed_step:             no
# Athena.pre_edge_range:         -215 -20
# Athena.pre_edge_line:          9.909324 - 0.00104947 * E
# Athena.normalization_range:    63.870 382.040
# Athena.post_edge_polynomial:   25.838577 - 0.00535453 * E + 2.95884084e-007 * E^2 + 0 * E^3
# Athena.spline_range_energy:    0.000 791.795
# Athena.clamps:                 0 24
# Athena.spline_range_k:         0.000 14.416
# Athena.kweight:                2
# Athena.window:                 hanning
# Athena.phase_correction:       no
# Athena.k_range:                3 9
# Athena.dk:                     1
# Athena.r_range:                1 3
# Athena.dr:                     0.0
# Athena.window:                 hanning
# Athena.plot_multiplier:        1
# Athena.y_offset:               0
# ///
#------------------------
#   e         norm       nbkg       flat       fbkg       nder       nsec
  6860.2490      -0.60440686E-02  -0.60440694E-02  -0.60440694E-02  -0.60440694E-02   0.42056969E-02  -0.30158729E-03
  6870.2190       0.35886729E-01   0.35886734E-01   0.35886734E-01   0.35886734E-01   0.11988716E-02  -0.26448765E-03
  6880.2090       0.17885408E-01   0.17885410E-01   0.17885410E-01   0.17885410E-01  -0.10734766E-02  -0.69068253E-04
  6890.2390       0.14395728E-01   0.14395730E-01   0.14395730E-01   0.14395730E-01  -0.18387487E-03   0.42288573E-04
  6900.2990       0.14191361E-01   0.14191363E-01   0.14191363E-01   0.14191363E-01  -0.22389914E-03  -0.13223525E-04
  6910.2790       0.99087894E-02   0.99087906E-02   0.99087906E-02   0.99087906E-02  -0.44887431E-03  -0.41828150E-05
  6920.2790       0.52228527E-02   0.52228534E-02   0.52228534E-02   0.52228534E-02  -0.30747179E-03   0.11298803E-04
  6930.2090       0.37808767E-02   0.37808772E-02   0.37808772E-02   0.37808772E-02  -0.22368916E-03   0.47472350E-05
  6940.2690       0.75130631E-03   0.75130641E-03   0.75130641E-03   0.75130641E-03  -0.21257456E-03   0.82097507E-05
  6950.2590      -0.48124320E-03  -0.48124326E-03  -0.48124326E-03  -0.48124326E-03  -0.59083662E-04   0.64893409E-05
  6960.2690      -0.43036693E-03  -0.43036699E-03  -0.43036699E-03  -0.43036699E-03  -0.82787740E-04  -0.13023291E-04
  6970.3190      -0.21419653E-02  -0.21419655E-02  -0.21419655E-02  -0.21419655E-02  -0.32033087E-03  -0.77159155E-05
  6980.2790      -0.68401877E-02  -0.68401885E-02  -0.68401885E-02  -0.68401885E-02  -0.23718321E-03   0.19587507E-04
  6990.2590      -0.68713985E-02  -0.68713993E-02  -0.68713993E-02  -0.68713993E-02   0.70244009E-04   0.18393248E-04
  7000.2790      -0.54353075E-02  -0.54353082E-02  -0.54353082E-02  -0.54353082E-02   0.13068175E-03  -0.13347057E-04
  7010.2190      -0.42629908E-02  -0.42629913E-02  -0.42629913E-02  -0.42629913E-02  -0.19616324E-03  -0.60339498E-05
  7020.2990      -0.93624956E-02  -0.93624968E-02  -0.93624968E-02  -0.93624968E-02   0.98820722E-05   0.27881750E-04
  7030.2890      -0.40646576E-02  -0.40646581E-02  -0.40646581E-02  -0.40646581E-02   0.36342348E-03  -0.14254654E-04
  7040.3090      -0.20903917E-02  -0.20903919E-02  -0.20903919E-02  -0.20903919E-02  -0.27535355E-03  -0.21751249E-04
  7050.2490      -0.95607145E-02  -0.95607157E-02  -0.95607157E-02  -0.95607157E-02  -0.70731440E-04   0.43717734E-04
  7060.2090      -0.34979473E-02  -0.34979478E-02  -0.34979478E-02  -0.34979478E-02   0.59462935E-03   0.24271307E-04
  7061.2690      -0.30078991E-02  -0.30078995E-02  -0.30078995E-02  -0.30078995E-02   0.19673836E-03  -0.60339534E-03
  7061.8590      -0.31733290E-02  -0.31733294E-02  -0.31733294E-02  -0.31733294E-02  -0.40097296E-03   0.10984396E-02
  7062.4390      -0.34770375E-02  -0.34770379E-02  -0.34770379E-02  -0.34770379E-02   0.14819128E-02  -0.94265759E-04
  7063.0290      -0.14394911E-02  -0.14394913E-02  -0.14394913E-02  -0.14394913E-02  -0.51126390E-03  -0.15923368E-02
  7063.6190      -0.40803289E-02  -0.40803294E-02  -0.40803294E-02  -0.40803294E-02  -0.39704468E-03   0.18112994E-02
  7064.2090      -0.19080038E-02  -0.19080041E-02  -0.19080041E-02  -0.19080041E-02   0.16260694E-02  -0.10977871E-02
  7064.7990      -0.21615669E-02  -0.21615672E-02  -0.21615672E-02  -0.21615672E-02  -0.16924334E-02  -0.69360348E-03
  7065.3790      -0.38881509E-02  -0.38881514E-02  -0.38881514E-02  -0.38881514E-02   0.81455338E-03   0.18154829E-02
  7065.9690      -0.12085395E-02  -0.12085396E-02  -0.12085396E-02  -0.12085396E-02   0.43168158E-03  -0.19501903E-02
  7066.5590      -0.33787667E-02  -0.33787671E-02  -0.33787671E-02  -0.33787671E-02  -0.14866711E-02  -0.35122991E-03
  7067.1490      -0.29628114E-02  -0.29628118E-02  -0.29628118E-02  -0.29628118E-02   0.17230291E-04   0.97348336E-03
  7067.7390      -0.33584349E-02  -0.33584353E-02  -0.33584354E-02  -0.33584353E-02  -0.33796076E-03   0.69725529E-03
  7068.3190      -0.33582255E-02  -0.33582259E-02  -0.33582259E-02  -0.33582259E-02   0.83301897E-03   0.48883165E-03
  7068.9090      -0.23838027E-02  -0.23838030E-02  -0.23838030E-02  -0.23838030E-02   0.23397227E-03  -0.17286570E-02
  7069.4990      -0.30821382E-02  -0.30821386E-02  -0.30821386E-02  -0.30821386E-02  -0.12067963E-02  -0.91504402E-03
  7070.0890      -0.38078223E-02  -0.38078228E-02  -0.38078228E-02  -0.38078228E-02  -0.84577968E-03   0.29498610E-02
  7070.6790      -0.40801582E-02  -0.40801588E-02  -0.40801588E-02  -0.40801588E-02   0.22740398E-02   0.26572546E-02
  7071.2690      -0.11244554E-02  -0.11244555E-02  -0.11244555E-02  -0.11244555E-02   0.22897807E-02  -0.30464354E-02
  7071.8590      -0.13782170E-02  -0.13782172E-02  -0.13782172E-02  -0.13782172E-02  -0.13207540E-02  -0.29472999E-02
  7072.4490      -0.26829451E-02  -0.26829454E-02  -0.26829454E-02  -0.26829454E-02  -0.11880332E-02   0.13155958E-02
  7073.0290      -0.27682158E-02  -0.27682162E-02  -0.27682162E-02  -0.27682162E-02   0.21849303E-03   0.10506383E-02
  7073.6190      -0.24273083E-02  -0.24273086E-02  -0.24273086E-02  -0.24273086E-02   0.41213663E-04   0.28215486E-03
  7074.2090      -0.27195837E-02  -0.27195840E-02  -0.27195840E-02  -0.27195840E-02   0.55143576E-03   0.15118347E-02
  7074.7990      -0.17766141E-02  -0.17766143E-02  -0.17766143E-02  -0.17766143E-02   0.18251786E-02   0.85993591E-03
  7075.3890      -0.56587298E-03  -0.56587305E-03  -0.56587306E-03  -0.56587305E-03   0.15661601E-02  -0.24498790E-02
  7075.9790       0.71454896E-04   0.71454907E-04   0.71454905E-04   0.71454907E-04  -0.10656786E-02  -0.15455765E-02
  7076.5690      -0.18233737E-02  -0.18233740E-02  -0.18233740E-02  -0.18233740E-02  -0.25762015E-03   0.21284597E-02
  7077.1590      -0.23253688E-03  -0.23253691E-03  -0.23253691E-03  -0.23253691E-03   0.14459039E-02   0.23558760E-02
  7077.7490      -0.11720716E-03  -0.11720717E-03  -0.11720718E-03  -0.11720717E-03   0.25223136E-02  -0.10779161E-02
  7078.3390       0.27437931E-02   0.27437935E-02   0.27437935E-02   0.27437935E-02   0.17396286E-03  -0.45920721E-02
  7078.9290       0.88069011E-04   0.88069025E-04   0.88069023E-04   0.88069025E-04  -0.28963316E-02  -0.19807754E-02
  7079.5190      -0.67387815E-03  -0.67387824E-03  -0.67387824E-03  -0.67387824E-03  -0.21633521E-02   0.67855417E-03
  7080.1090      -0.24646865E-02  -0.24646868E-02  -0.24646868E-02  -0.24646868E-02  -0.20956377E-02   0.25271596E-02
  7080.6990      -0.31467306E-02  -0.31467310E-02  -0.31467310E-02  -0.31467310E-02   0.81869616E-03   0.38966099E-02
  7081.2890      -0.14986250E-02  -0.14986252E-02  -0.14986252E-02  -0.14986252E-02   0.25023621E-02   0.49453972E-03
  7081.8890      -0.16891971E-03  -0.16891973E-03  -0.16891973E-03  -0.16891973E-03   0.14071984E-02  -0.22896243E-02
  7082.4790       0.17594110E-03   0.17594113E-03   0.17594113E-03   0.17594113E-03  -0.22229085E-03  -0.51391252E-03
  7083.0690      -0.43122291E-03  -0.43122296E-03  -0.43122296E-03  -0.43122296E-03   0.80078166E-03   0.72702673E-03
  7083.6590       0.11208635E-02   0.11208636E-02   0.11208636E-02   0.11208636E-02   0.63560069E-03  -0.68844768E-03
  7084.2490       0.31878591E-03   0.31878595E-03   0.31878595E-03   0.31878595E-03  -0.11586608E-04   0.14206758E-02
  7084.8390       0.11071913E-02   0.11071914E-02   0.11071914E-02   0.11071914E-02   0.23119981E-02   0.62864338E-03
  7085.4290       0.30469437E-02   0.30469441E-02   0.30469441E-02   0.30469441E-02   0.73021258E-03  -0.35164426E-02
  7086.0190       0.19688421E-02   0.19688424E-02   0.19688424E-02   0.19688424E-02  -0.18374042E-02  -0.86531363E-03
  7086.6090       0.87880677E-03   0.87880689E-03   0.87880688E-03   0.87880689E-03  -0.29085750E-03   0.26718217E-02
  7087.2090       0.16227217E-02   0.16227219E-02   0.16227219E-02   0.16227219E-02   0.13420636E-02  -0.30325774E-03
  7087.7990       0.24758625E-02   0.24758628E-02   0.24758628E-02   0.24758628E-02  -0.65173422E-03  -0.12954568E-02
  7088.3890       0.85367530E-03   0.85367541E-03   0.85367541E-03   0.85367541E-03  -0.18657539E-03   0.29341530E-02
  7088.9790       0.22557035E-02   0.22557038E-02   0.22557038E-02   0.22557038E-02   0.28105663E-02   0.22221409E-02
  7089.5690       0.41701435E-02   0.41701440E-02   0.41701440E-02   0.41701440E-02   0.24355508E-02  -0.37217177E-02
  7090.1690       0.51540090E-02   0.51540097E-02   0.51540097E-02   0.51540097E-02  -0.16182777E-02  -0.44824731E-02
  7090.7590       0.22443930E-02   0.22443933E-02   0.22443933E-02   0.22443933E-02  -0.28985921E-02   0.74364359E-03
  7091.3490       0.17336703E-02   0.17336705E-02   0.17336705E-02   0.17336705E-02  -0.74077830E-03   0.19709286E-02
  7091.9390       0.13702746E-02   0.13702748E-02   0.13702748E-02   0.13702748E-02  -0.57289641E-03   0.18155466E-02
  7092.5390       0.10519236E-02   0.10519237E-02   0.10519237E-02   0.10519237E-02   0.14197221E-02   0.24337785E-02
  7093.1290       0.30597439E-02   0.30597443E-02   0.30597443E-02   0.30597443E-02   0.23233000E-02  -0.11623833E-02
  7093.7190       0.37934176E-02   0.37934181E-02   0.37934181E-02   0.37934181E-02   0.48109828E-04  -0.17185179E-02
  7094.3090       0.31165135E-02   0.31165139E-02   0.31165139E-02   0.31165139E-02   0.29544884E-03   0.79142379E-03
  7094.9090       0.41450017E-02   0.41450022E-02   0.41450022E-02   0.41450022E-02   0.98990413E-03   0.18485693E-02
  7095.4990       0.42944994E-02   0.42945000E-02   0.42945000E-02   0.42945000E-02   0.24952463E-02  -0.18027319E-02
  7096.0890       0.70893924E-02   0.70893933E-02   0.70893933E-02   0.70893933E-02  -0.11373195E-02  -0.27926401E-02
  7096.6890       0.29410892E-02   0.29410896E-02   0.29410896E-02   0.29410896E-02  -0.82799535E-03   0.28045218E-02
  7097.2790       0.61040779E-02   0.61040787E-02   0.61040787E-02   0.61040787E-02   0.22000614E-02  -0.17395398E-02
  7097.8690       0.55371617E-02   0.55371624E-02   0.55371624E-02   0.55371624E-02  -0.28806523E-02  -0.79419642E-03
  7098.4690       0.26761017E-02   0.26761020E-02   0.26761020E-02   0.26761020E-02   0.12549677E-02   0.46854460E-02
  7099.0590       0.70305733E-02   0.70305742E-02   0.70305742E-02   0.70305742E-02   0.26950284E-02  -0.49885815E-03
  7099.6590       0.58831855E-02   0.58831863E-02   0.58831863E-02   0.58831863E-02   0.66132648E-03  -0.10965396E-02
  7100.2490       0.78175518E-02   0.78175528E-02   0.78175528E-02   0.78175528E-02   0.13901463E-02  -0.14600481E-02
  7100.8390       0.75235582E-02   0.75235591E-02   0.75235591E-02   0.75235591E-02  -0.10615302E-02  -0.79588663E-04
  7101.4390       0.65543308E-02   0.65543316E-02   0.65543316E-02   0.65543316E-02   0.12954358E-02   0.18360746E-02
  7102.0290       0.90651268E-02   0.90651280E-02   0.90651279E-02   0.90651280E-02   0.11233986E-02  -0.17052881E-02
  7102.6290       0.78911751E-02   0.78911761E-02   0.78911761E-02   0.78911761E-02  -0.73385708E-03   0.27736659E-02
  7103.2190       0.81918369E-02   0.81918379E-02   0.81918379E-02   0.81918379E-02   0.44240610E-02   0.38947597E-02
  7103.8190       0.13155808E-01   0.13155809E-01   0.13155809E-01   0.13155809E-01   0.39009069E-02  -0.46470512E-02
  7104.4090       0.12833916E-01   0.12833918E-01   0.12833918E-01   0.12833918E-01  -0.11059300E-02  -0.34689186E-02
  7104.9990       0.11850810E-01   0.11850812E-01   0.11850812E-01   0.11850812E-01  -0.19241704E-03   0.10991249E-02
  7105.5990       0.12604940E-01   0.12604941E-01   0.12604941E-01   0.12604941E-01   0.20202861E-03   0.12877118E-02
  7106.1890       0.12091224E-01   0.12091226E-01   0.12091226E-01   0.12091226E-01   0.13399600E-02   0.37064255E-02
  7106.7890       0.14199492E-01   0.14199494E-01   0.14199494E-01   0.14199494E-01   0.46126749E-02   0.14857086E-02
  7107.3790       0.17580307E-01   0.17580310E-01   0.17580310E-01   0.17580310E-01   0.31079532E-02  -0.53266883E-03
  7107.9790       0.17897957E-01   0.17897959E-01   0.17897959E-01   0.17897959E-01   0.39787990E-02  -0.32750925E-03
  7108.5790       0.22354866E-01   0.22354869E-01   0.22354869E-01   0.22354869E-01   0.27149421E-02  -0.12413076E-02
  7109.1690       0.21128738E-01   0.21128740E-01   0.21128740E-01   0.21128740E-01   0.25016430E-02   0.44874298E-02
  7109.7690       0.25331821E-01   0.25331825E-01   0.25331825E-01   0.25331825E-01   0.80549836E-02   0.10583904E-01
  7110.3590       0.30714168E-01   0.30714172E-01   0.30714172E-01   0.30714172E-01   0.15096489E-01   0.15032527E-01
  7110.9590       0.43296643E-01   0.43296648E-01   0.43296648E-01   0.43296648E-01   0.25943691E-01   0.78745819E-02
  7111.5490       0.61587160E-01   0.61587168E-01   0.61587168E-01   0.61587168E-01   0.24467241E-01  -0.14764045E-01
  7112.1490       0.72412660E-01   0.72412669E-01   0.72412669E-01   0.72412669E-01   0.83744774E-02  -0.23617320E-01
  7112.7490       0.71636533E-01   0.71636542E-01   0.71636542E-01   0.71636542E-01  -0.38735429E-02  -0.10945945E-01
  7113.3390       0.67803144E-01   0.67803152E-01   0.67803152E-01   0.67803152E-01  -0.46511969E-02   0.29523372E-02
  7113.9390       0.66101609E-01   0.66101617E-01   0.66101617E-01   0.66101617E-01  -0.36026160E-03   0.54341480E-02
  7114.5390       0.67370830E-01   0.67370838E-01   0.67370838E-01   0.67370838E-01   0.18697807E-02   0.94079604E-02
  7115.1290       0.68326648E-01   0.68326656E-01   0.68326656E-01   0.68326656E-01   0.10835211E-01   0.21701626E-01
  7115.7290       0.80264731E-01   0.80264741E-01   0.80264741E-01   0.80264741E-01   0.27694716E-01   0.32476715E-01
  7116.3290       0.10156031       0.10156032       0.10156032       0.10156032       0.49807269E-01   0.44529357E-01
  7116.9190       0.13953538       0.13953540       0.13953540       0.13953540       0.80684651E-01   0.56706658E-01
  7117.5190       0.19757504       0.19757507       0.19757507       0.19757507       0.11728819       0.66033618E-01
  7118.1190       0.28028121       0.28028125       0.28028125       0.28028125       0.15992499       0.69950308E-01
  7118.7090       0.38788578       0.38788583       0.38788583       0.38788583       0.20052906       0.35188078E-01
  7119.3090       0.51891079       0.51891086       0.51891086       0.51891086       0.20179880      -0.29143406E-01
  7119.9090       0.63004435       0.63004443       0.62996784       0.62996784       0.16555697      -0.64440877E-01
  7120.5090       0.71757916        1.7457491       0.71770103        1.7458709       0.12446975      -0.63601855E-01
  7121.0990       0.77816335        1.6803472       0.77847955        1.6806633       0.89870764E-01  -0.41359431E-01
  7121.6990       0.82452537        1.6176625       0.82503841        1.6181754       0.75252029E-01  -0.11209669E-01
  7122.2990       0.86846579        1.5587208       0.86917491        1.5594298       0.76419161E-01   0.10968723E-01
  7122.8990       0.91622836        1.5034069       0.91713280        1.5043112       0.88414496E-01   0.27572552E-01
  7123.4890       0.97367904        1.4524404       0.97477479        1.4535361       0.10923050       0.22022079E-01
  7124.0890        1.0462127        1.4039801        1.0475022        1.4052695       0.11462077      -0.53667998E-02
  7124.6890        1.1112240        1.3588033        1.1127065        1.3602858       0.10279034      -0.26695358E-01
  7125.2890        1.1695611        1.3167947        1.1712359        1.3184694       0.82586340E-01  -0.41760943E-01
  7125.8890        1.2103276        1.2778389        1.2121939        1.2797050       0.52677207E-01  -0.48917892E-01
  7126.4890        1.2327737        1.2418205        1.2348307        1.2438773       0.23884870E-01  -0.36938731E-01
  7127.0790        1.2387506        1.2091549        1.2409943        1.2113985       0.87201166E-02  -0.20673517E-01
  7127.6790        1.2431506        1.1786210        1.2455836        1.1810538      -0.71661563E-03  -0.15964698E-01
  7128.2790        1.2378906        1.1506805        1.2405120        1.1533016      -0.10437521E-01  -0.90873755E-02
  7128.8790        1.2306256        1.1252177        1.2334346        1.1280266      -0.11621466E-01  -0.28978788E-02
  7129.4790        1.2239449        1.1021175        1.2269407        1.1051132      -0.13914975E-01  -0.45113852E-02
  7130.0790        1.2139277        1.0812645        1.2171096        1.0844463      -0.17035129E-01  -0.46252754E-02
  7130.6790        1.2035027        1.0625432        1.2068700        1.0659103      -0.19465306E-01  -0.16957093E-02
  7131.2790        1.1905693        1.0458383        1.1941211        1.0493899      -0.19069980E-01  -0.27260697E-02
  7131.8790        1.1806187        1.0310344        1.1843544        1.0347699      -0.22736590E-01  -0.76293915E-02
  7132.4790        1.1632854        1.0180162        1.1672040        1.0219347      -0.28225250E-01  -0.18849285E-02
  7133.0790        1.1467484        1.0066683        1.1508493        1.0107691      -0.24998504E-01   0.61932452E-02
  7133.6790        1.1332872       0.99687533        1.1375696        1.0011576      -0.20793355E-01   0.76893264E-04
  7134.2790        1.1217964       0.98852193        1.1262595       0.99298488      -0.24906232E-01  -0.26770350E-03
  7134.8790        1.1033997       0.98149272        1.1080427       0.98613562      -0.21114600E-01   0.74438355E-02
  7135.4790        1.0964589       0.97567234        1.1012811       0.98049441      -0.15973629E-01  -0.30329615E-03
  7136.0790        1.0842313       0.97094541        1.0892320       0.97594589      -0.21478555E-01  -0.13478800E-02
  7136.6790        1.0706846       0.96719658        1.0758629       0.97237470      -0.17591085E-01   0.76612431E-02
  7137.2790        1.0631220       0.96431048        1.0684772       0.96966546      -0.12285063E-01   0.58784286E-02
  7137.8790        1.0559425       0.96217172        1.0614738       0.96770280      -0.10536971E-01  -0.89539250E-03
  7138.4790        1.0504777       0.96066496        1.0561842       0.96637137      -0.13359534E-01  -0.37495997E-02
  7139.0790        1.0399111       0.95967482        1.0457922       0.96555578      -0.15036491E-01   0.11112464E-02
  7139.6790        1.0324339       0.95908592        1.0384888       0.96514068      -0.12026039E-01   0.52864606E-02
