# XDI/1.0 Athena/0.9.26
# Element.edge:                  K
# Element.symbol:                Fe
# Column.1:                      energy eV
# Column.2:                      norm
# Column.3:                      nbkg
# Column.4:                      flat
# Column.5:                      fbkg
# Column.6:                      nder
# Column.7:                      nsec
# Athena.e0:                     7120.140
# Athena.eshift:                 -0.753
# Athena.rbkg:                   1
# Athena.importance:             1
# Athena.standard:               None
# Athena.bkg_kweight:            2
# Athena.edge_step:              0.3816654
# Athena.fixed_step:             no
# Athena.pre_edge_range:         -215 -20
# Athena.pre_edge_line:          11.504112 - 0.0012155 * E
# Athena.normalization_range:    63.870 382.040
# Athena.post_edge_polynomial:   33.637398 - 0.00716042 * E + 4.05887856e-007 * E^2 + 0 * E^3
# Athena.spline_range_energy:    0.000 791.795
# Athena.clamps:                 0 24
# Athena.spline_range_k:         0.000 14.416
# Athena.kweight:                2
# Athena.window:                 hanning
# Athena.phase_correction:       no
# Athena.k_range:                3 9
# Athena.dk:                     1
# Athena.r_range:                1 3
# Athena.dr:                     0.0
# Athena.window:                 hanning
# Athena.plot_multiplier:        1
# Athena.y_offset:               0
# ///
#------------------------
#   e         norm       nbkg       flat       fbkg       nder       nsec
  6860.3000      -0.19050902E-02  -0.19050905E-02  -0.19050905E-02  -0.19050905E-02   0.36714179E-02  -0.25592238E-03
  6870.2700       0.34698946E-01   0.34698951E-01   0.34698951E-01   0.34698951E-01   0.11198717E-02  -0.22974529E-03
  6880.2600       0.20447549E-01   0.20447552E-01   0.20447552E-01   0.20447552E-01  -0.91429814E-03  -0.78867693E-04
  6890.2900       0.16394697E-01   0.16394699E-01   0.16394699E-01   0.16394699E-01  -0.45905949E-03   0.20111037E-04
  6900.3500       0.11225044E-01   0.11225046E-01   0.11225046E-01   0.11225046E-01  -0.51026740E-03   0.25121937E-04
  6910.3300       0.61689386E-02   0.61689394E-02   0.61689394E-02   0.61689394E-02   0.44384122E-04   0.24316284E-04
  6920.3300       0.12111839E-01   0.12111841E-01   0.12111841E-01   0.12111841E-01  -0.24428045E-04  -0.25394823E-04
  6930.2600       0.56820877E-02   0.56820884E-02   0.56820884E-02   0.56820884E-02  -0.46173471E-03  -0.99052003E-05
  6940.3200       0.28817622E-02   0.28817626E-02   0.28817626E-02   0.28817626E-02  -0.22243300E-03   0.96716669E-05
  6950.3100       0.12223061E-02   0.12223062E-02   0.12223062E-02   0.12223062E-02  -0.26781778E-03  -0.33690247E-05
  6960.3200      -0.24745934E-02  -0.24745938E-02  -0.24745937E-02  -0.24745938E-02  -0.28981349E-03   0.80368456E-05
  6970.3700      -0.45913526E-02  -0.45913532E-02  -0.45913532E-02  -0.45913532E-02  -0.10659866E-03   0.66364550E-05
  6980.3300      -0.46076326E-02  -0.46076333E-02  -0.46076332E-02  -0.46076333E-02  -0.15701803E-03   0.33010898E-05
  6990.3100      -0.77222921E-02  -0.77222931E-02  -0.77222931E-02  -0.77222931E-02  -0.40774930E-04   0.13064429E-04
  7000.3300      -0.54231312E-02  -0.54231320E-02  -0.54231319E-02  -0.54231320E-02   0.10427054E-03   0.11446539E-05
  7010.2700      -0.56410520E-02  -0.56410528E-02  -0.56410527E-02  -0.56410528E-02  -0.17927638E-04  -0.13259106E-04
  7020.3500      -0.57820425E-02  -0.57820433E-02  -0.57820433E-02  -0.57820433E-02  -0.16117676E-03   0.41678224E-05
  7030.3400      -0.88758696E-02  -0.88758708E-02  -0.88758708E-02  -0.88758708E-02   0.65720559E-04   0.16322303E-04
  7040.3600      -0.44669742E-02  -0.44669748E-02  -0.44669747E-02  -0.44669748E-02   0.16543252E-03  -0.17046652E-05
  7050.3000      -0.55738364E-02  -0.55738372E-02  -0.55738372E-02  -0.55738372E-02   0.31695441E-04  -0.97232307E-05
  7060.2600      -0.38362349E-02  -0.38362354E-02  -0.38362354E-02  -0.38362354E-02  -0.28059766E-04  -0.81459742E-04
  7061.3200      -0.58830551E-02  -0.58830559E-02  -0.58830558E-02  -0.58830559E-02  -0.86599091E-03   0.13186477E-02
  7061.9100      -0.52651199E-02  -0.52651206E-02  -0.52651206E-02  -0.52651206E-02   0.21477089E-02   0.48297835E-02
  7062.4900      -0.33702357E-02  -0.33702361E-02  -0.33702361E-02  -0.33702361E-02   0.47848558E-02  -0.87625841E-03
  7063.0800       0.33316134E-03   0.33316134E-03   0.33316139E-03   0.33316134E-03   0.11224866E-02  -0.55857450E-02
  7063.6700      -0.20457015E-02  -0.20457018E-02  -0.20457018E-02  -0.20457018E-02  -0.18063234E-02  -0.15977216E-02
  7064.2600      -0.17983002E-02  -0.17983005E-02  -0.17983005E-02  -0.17983005E-02  -0.76282499E-03  -0.37968484E-03
  7064.8500      -0.29458350E-02  -0.29458354E-02  -0.29458354E-02  -0.29458354E-02  -0.22543515E-02  -0.72050442E-03
  7065.4300      -0.44358915E-02  -0.44358921E-02  -0.44358920E-02  -0.44358921E-02  -0.16058152E-02   0.45847482E-02
  7066.0200      -0.48246388E-02  -0.48246394E-02  -0.48246394E-02  -0.48246394E-02   0.31098040E-02   0.35966715E-02
  7066.6100      -0.76632277E-03  -0.76632292E-03  -0.76632287E-03  -0.76632292E-03   0.26382572E-02  -0.48052871E-02
  7067.2000      -0.17114953E-02  -0.17114955E-02  -0.17114955E-02  -0.17114955E-02  -0.25604348E-02  -0.25748234E-02
  7067.7900      -0.37876359E-02  -0.37876364E-02  -0.37876363E-02  -0.37876364E-02  -0.40003447E-03   0.37410504E-02
  7068.3700      -0.21795356E-02  -0.21795359E-02  -0.21795359E-02  -0.21795359E-02   0.18165942E-02   0.23031745E-03
  7068.9600      -0.16622207E-02  -0.16622209E-02  -0.16622209E-02  -0.16622209E-02  -0.13056306E-03  -0.34378380E-02
  7069.5500      -0.23336000E-02  -0.23336004E-02  -0.23336003E-02  -0.23336004E-02  -0.22400547E-02   0.13331114E-03
  7070.1400      -0.43054852E-02  -0.43054858E-02  -0.43054857E-02  -0.43054858E-02   0.26744087E-04   0.46407385E-02
  7070.7300      -0.23020420E-02  -0.23020423E-02  -0.23020423E-02  -0.23020423E-02   0.32360168E-02   0.83952335E-03
  7071.3200      -0.48698540E-03  -0.48698550E-03  -0.48698546E-03  -0.48698550E-03   0.10173816E-02  -0.42896606E-02
  7071.9100      -0.11015317E-02  -0.11015318E-02  -0.11015318E-02  -0.11015318E-02  -0.18257828E-02  -0.26175689E-02
  7072.5000      -0.26414091E-02  -0.26414095E-02  -0.26414094E-02  -0.26414095E-02  -0.20713496E-02   0.12161889E-02
  7073.0800      -0.35250107E-02  -0.35250112E-02  -0.35250112E-02  -0.35250112E-02  -0.40284177E-03   0.26550849E-02
  7073.6700      -0.31127340E-02  -0.31127344E-02  -0.31127344E-02  -0.31127344E-02   0.10350997E-02   0.23085193E-02
  7074.2600      -0.23035931E-02  -0.23035935E-02  -0.23035934E-02  -0.23035935E-02   0.23212110E-02  -0.68266350E-03
  7074.8500      -0.37370492E-03  -0.37370501E-03  -0.37370496E-03  -0.37370501E-03   0.22955674E-03  -0.22957289E-02
  7075.4400      -0.20327162E-02  -0.20327165E-02  -0.20327164E-02  -0.20327165E-02  -0.38774902E-03  -0.11108394E-02
  7076.0300      -0.83124876E-03  -0.83124891E-03  -0.83124887E-03  -0.83124891E-03  -0.10812337E-02  -0.65961650E-03
  7076.6200      -0.33085720E-02  -0.33085725E-02  -0.33085724E-02  -0.33085725E-02  -0.11660965E-02   0.26186529E-02
  7077.2100      -0.22072426E-02  -0.22072429E-02  -0.22072429E-02  -0.22072429E-02   0.20087767E-02   0.13021681E-02
  7077.8000      -0.93821549E-03  -0.93821566E-03  -0.93821561E-03  -0.93821566E-03   0.37046186E-03  -0.21790383E-02
  7078.3900      -0.17700976E-02  -0.17700979E-02  -0.17700978E-02  -0.17700979E-02  -0.56248856E-03  -0.71337610E-03
  7078.9800      -0.16019520E-02  -0.16019522E-02  -0.16019522E-02  -0.16019522E-02  -0.47132193E-03  -0.81762235E-03
  7079.5700      -0.23262575E-02  -0.23262578E-02  -0.23262578E-02  -0.23262578E-02  -0.15272829E-02   0.19599682E-02
  7080.1600      -0.34041459E-02  -0.34041463E-02  -0.34041463E-02  -0.34041463E-02   0.18414405E-02   0.33110877E-02
  7080.7500      -0.15335772E-03  -0.15335778E-03  -0.15335774E-03  -0.15335778E-03   0.23798006E-02  -0.41189444E-02
  7081.3400      -0.59598117E-03  -0.59598129E-03  -0.59598124E-03  -0.59598129E-03  -0.30189139E-02  -0.29535783E-02
  7081.9400      -0.37458652E-02  -0.37458658E-02  -0.37458657E-02  -0.37458658E-02  -0.11349576E-02   0.47108566E-02
  7082.5300      -0.19465807E-02  -0.19465810E-02  -0.19465810E-02  -0.19465810E-02   0.25870054E-02   0.24070006E-02
  7083.1200      -0.69319885E-03  -0.69319898E-03  -0.69319894E-03  -0.69319898E-03   0.17053032E-02  -0.11283693E-02
  7083.7100       0.65677024E-04   0.65676988E-04   0.65677033E-04   0.65676988E-04   0.12555297E-02  -0.25233168E-02
  7084.3000       0.78832618E-03   0.78832624E-03   0.78832628E-03   0.78832624E-03  -0.12722107E-02  -0.50695888E-03
  7084.8900      -0.14355316E-02  -0.14355318E-02  -0.14355318E-02  -0.14355318E-02   0.65731820E-03   0.46743579E-02
  7085.4800       0.15639617E-02   0.15639618E-02   0.15639619E-02   0.15639618E-02   0.42435316E-02  -0.12772330E-02
  7086.0700       0.35718357E-02   0.35718361E-02   0.35718362E-02   0.35718361E-02  -0.84981679E-03  -0.49461602E-02
  7086.6600       0.56117785E-03   0.56117788E-03   0.56117792E-03   0.56117788E-03  -0.15929374E-02   0.20588704E-02
  7087.2600       0.16762401E-02   0.16762403E-02   0.16762404E-02   0.16762403E-02   0.16002390E-02   0.30686246E-03
  7087.8500       0.24654622E-02   0.24654625E-02   0.24654626E-02   0.24654625E-02  -0.12277711E-02  -0.71138044E-03
  7088.4400       0.22747022E-03   0.22747021E-03   0.22747025E-03   0.22747021E-03   0.76081007E-03   0.19258959E-02
  7089.0300       0.33632181E-02   0.33632185E-02   0.33632186E-02   0.33632185E-02   0.10447860E-02  -0.13973584E-02
  7089.6200       0.14603177E-02   0.14603179E-02   0.14603179E-02   0.14603179E-02  -0.88807280E-03   0.92241196E-03
  7090.2200       0.23064115E-02   0.23064117E-02   0.23064118E-02   0.23064117E-02   0.21424563E-02   0.15957126E-02
  7090.8100       0.40098407E-02   0.40098411E-02   0.40098412E-02   0.40098411E-02   0.10108251E-02  -0.23962329E-02
  7091.4000       0.34991851E-02   0.34991856E-02   0.34991856E-02   0.34991856E-02  -0.68509857E-03  -0.17563133E-03
  7091.9900       0.32014244E-02   0.32014247E-02   0.32014248E-02   0.32014247E-02   0.80358017E-03   0.12022494E-02
  7092.5900       0.44554456E-02   0.44554461E-02   0.44554461E-02   0.44554461E-02   0.74557820E-03   0.23864567E-03
  7093.1800       0.40886624E-02   0.40886629E-02   0.40886629E-02   0.40886629E-02   0.10875685E-02   0.19484341E-03
  7093.7700       0.57387764E-02   0.57387771E-02   0.57387771E-02   0.57387771E-02   0.97549341E-03  -0.14930471E-02
  7094.3600       0.52397446E-02   0.52397453E-02   0.52397453E-02   0.52397453E-02  -0.67422710E-03  -0.10134488E-02
  7094.9600       0.49364462E-02   0.49364467E-02   0.49364468E-02   0.49364467E-02  -0.23051065E-03   0.19872325E-02
  7095.5500       0.49654370E-02   0.49654376E-02   0.49654376E-02   0.49654376E-02   0.16905796E-02   0.90830343E-03
  7096.1400       0.69313301E-02   0.69313309E-02   0.69313310E-02   0.69313309E-02   0.84128740E-03  -0.29301083E-02
  7096.7400       0.59665690E-02   0.59665697E-02   0.59665697E-02   0.59665697E-02  -0.17962492E-02  -0.28568570E-03
  7097.3300       0.47937935E-02   0.47937941E-02   0.47937941E-02   0.47937941E-02   0.50132141E-03   0.30213984E-02
  7097.9200       0.65581282E-02   0.65581290E-02   0.65581291E-02   0.65581290E-02   0.17690009E-02  -0.28554560E-03
  7098.5200       0.68989045E-02   0.68989054E-02   0.68989054E-02   0.68989054E-02   0.16152214E-03  -0.19172101E-02
  7099.1100       0.67503396E-02   0.67503404E-02   0.67503405E-02   0.67503404E-02  -0.51247917E-03   0.14630978E-03
  7099.7100       0.62890543E-02   0.62890551E-02   0.62890551E-02   0.62890551E-02   0.33563078E-03   0.13111732E-02
  7100.3000       0.71497402E-02   0.71497411E-02   0.71497411E-02   0.71497411E-02   0.10478170E-02   0.12381781E-02
  7100.8900       0.75254784E-02   0.75254793E-02   0.75254793E-02   0.75254793E-02   0.17966809E-02   0.89192191E-03
  7101.4900       0.92877905E-02   0.92877917E-02   0.92877917E-02   0.92877917E-02   0.21092041E-02  -0.17273133E-02
  7102.0800       0.10035431E-01   0.10035432E-01   0.10035432E-01   0.10035432E-01  -0.25882187E-03  -0.23077580E-02
  7102.6800       0.89797925E-02   0.89797936E-02   0.89797937E-02   0.89797936E-02  -0.63702796E-03   0.16210200E-02
  7103.2700       0.92773679E-02   0.92773691E-02   0.92773691E-02   0.92773691E-02   0.16701920E-02   0.36300822E-02
  7103.8700       0.10967321E-01   0.10967322E-01   0.10967322E-01   0.10967322E-01   0.36827698E-02  -0.67596047E-03
  7104.4600       0.13659864E-01   0.13659866E-01   0.13659866E-01   0.13659866E-01   0.86579900E-03  -0.41299828E-02
  7105.0500       0.11988964E-01   0.11988965E-01   0.11988965E-01   0.11988965E-01  -0.11906099E-02   0.97665887E-03
  7105.6500       0.12243038E-01   0.12243040E-01   0.12243040E-01   0.12243040E-01   0.20280231E-02   0.30478296E-02
  7106.2400       0.14402311E-01   0.14402313E-01   0.14402313E-01   0.14402313E-01   0.24363073E-02  -0.79416229E-03
  7106.8400       0.15142244E-01   0.15142246E-01   0.15142246E-01   0.15142246E-01   0.10829699E-02   0.16247444E-03
  7107.4300       0.15691045E-01   0.15691047E-01   0.15691047E-01   0.15691047E-01   0.26296519E-02   0.20988054E-02
  7108.0300       0.18271530E-01   0.18271532E-01   0.18271532E-01   0.18271532E-01   0.35805483E-02   0.34204618E-03
  7108.6300       0.19987703E-01   0.19987706E-01   0.19987706E-01   0.19987706E-01   0.30401073E-02   0.16714390E-02
  7109.2200       0.21889257E-01   0.21889260E-01   0.21889260E-01   0.21889260E-01   0.55695607E-02   0.53955570E-02
  7109.8200       0.26615481E-01   0.26615484E-01   0.26615484E-01   0.26615484E-01   0.94608201E-02   0.10720622E-01
  7110.4100       0.33147633E-01   0.33147638E-01   0.33147638E-01   0.33147638E-01   0.18327101E-01   0.13656071E-01
  7111.0100       0.48424731E-01   0.48424737E-01   0.48424737E-01   0.48424737E-01   0.25711544E-01   0.39292550E-02
  7111.6000       0.63744371E-01   0.63744380E-01   0.63744380E-01   0.63744380E-01   0.23002914E-01  -0.13819430E-01
  7112.2000       0.75798199E-01   0.75798209E-01   0.75798209E-01   0.75798209E-01   0.92664223E-02  -0.22907276E-01
  7112.8000       0.74864078E-01   0.74864088E-01   0.74864088E-01   0.74864088E-01  -0.44858170E-02  -0.12902489E-01
  7113.3900       0.70460077E-01   0.70460086E-01   0.70460086E-01   0.70460086E-01  -0.60875393E-02   0.37721265E-03
  7113.9900       0.67619906E-01   0.67619915E-01   0.67619915E-01   0.67619915E-01  -0.40369340E-02   0.81756960E-02
  7114.5900       0.65615756E-01   0.65615764E-01   0.65615764E-01   0.65615764E-01   0.37232959E-02   0.16179328E-01
  7115.1800       0.72050628E-01   0.72050638E-01   0.72050638E-01   0.72050638E-01   0.15216466E-01   0.20977094E-01
  7115.7800       0.83723351E-01   0.83723362E-01   0.83723362E-01   0.83723362E-01   0.28686038E-01   0.35076546E-01
  7116.3800       0.10647387       0.10647389       0.10647389       0.10647389       0.57308322E-01   0.54105251E-01
  7116.9700       0.15192025       0.15192027       0.15192027       0.15192027       0.93071287E-01   0.59531514E-01
  7117.5700       0.21722870       0.21722873       0.21722873       0.21722873       0.12815082       0.60765233E-01
  7118.1700       0.30570124       0.30570128       0.30570128       0.30570128       0.16598957       0.51145535E-01
  7118.7600       0.41475629       0.41475634       0.41475634       0.41475634       0.18901401       0.70786163E-02
  7119.3600       0.53062792       0.53062798       0.53062798       0.53062798       0.17441312      -0.43083502E-01
  7119.9600       0.62405203       0.62405211       0.62397415       0.62397415       0.13731381      -0.61037878E-01
  7120.5600       0.69540449        1.7096827       0.69558579        1.7098639       0.10116767      -0.44720280E-01
  7121.1500       0.74444156        1.6475427       0.74487698        1.6479780       0.84096675E-01  -0.14613615E-01
  7121.7500       0.79547953        1.5879615       0.79617262        1.5886545       0.83777465E-01   0.41466057E-02
  7122.3500       0.84497451        1.5319149       0.84592451        1.5328648       0.89072602E-01   0.15490143E-01
  7122.9500       0.90236665        1.4792945       0.90357279        1.4805005       0.10236564       0.20419944E-01
  7123.5400       0.96678962        1.4307870       0.96824688        1.4322441       0.11337234       0.54901338E-02
  7124.1400        1.0372797        1.3846411        1.0389916        1.3863528       0.10889890      -0.15344283E-01
  7124.7400        1.0974683        1.3415979        1.0994340        1.3435635       0.94959196E-01  -0.33062253E-01
  7125.3400        1.1512308        1.3015491        1.1534496        1.3037678       0.69224192E-01  -0.45864146E-01
  7125.9400        1.1805373        1.2643863        1.1830085        1.2668573       0.39922221E-01  -0.34560552E-01
  7126.5400        1.1991374        1.2300009        1.2018601        1.2327234       0.27751530E-01  -0.20824398E-01
  7127.1300        1.2135616        1.1987920        1.2165309        1.2017611       0.15141188E-01  -0.22276797E-01
  7127.7300        1.2171554        1.1695946        1.2203748        1.1728138       0.12421409E-02  -0.13975484E-01
  7128.3300        1.2150522        1.1428514        1.2185208        1.1463198      -0.16293927E-02  -0.50243698E-02
  7128.9300        1.2152002        1.1184538        1.2189173        1.1221707      -0.47871028E-02  -0.38315150E-02
  7129.5300        1.2093077        1.0962935        1.2132725        1.1002581      -0.62272107E-02  -0.56706734E-02
  7130.1300        1.2077275        1.0762620        1.2119393        1.0804736      -0.11591911E-01  -0.14604704E-01
  7130.7300        1.1953974        1.0582510        1.1998554        1.0627088      -0.23752855E-01  -0.82137412E-02
  7131.3300        1.1792241        1.0421520        1.1839275        1.0468552      -0.21448400E-01   0.15149975E-02
  7131.9300        1.1696593        1.0278566        1.1746074        1.0328045      -0.21934858E-01  -0.12322295E-02
  7132.5300        1.1529023        1.0152564        1.1580943        1.0204483      -0.22927076E-01  -0.14568620E-02
  7133.1300        1.1421468        1.0042430        1.1475820        1.0096780      -0.23683093E-01   0.14037135E-02
  7133.7300        1.1244826       0.99470803        1.1301601        1.0003854      -0.21242620E-01   0.62357681E-02
  7134.3300        1.1166557       0.98654300        1.1225748       0.99246197      -0.16200171E-01   0.34906263E-02
  7134.9300        1.1050423       0.97963953        1.1112023       0.98579935      -0.17053868E-01  -0.10732947E-02
  7135.5300        1.0961910       0.97388921        1.1025911       0.98028910      -0.17488125E-01   0.12268434E-03
  7136.1300        1.0840566       0.96918362        1.0906959       0.97582283      -0.16906647E-01   0.26509004E-02
  7136.7300        1.0759031       0.96541436        1.0827810       0.97229211      -0.14307044E-01   0.19777470E-02
  7137.3300        1.0668881       0.96247301        1.0740038       0.96958854      -0.14533350E-01  -0.12572227E-02
  7137.9300        1.0584630       0.96025116        1.0658157       0.96760371      -0.15815711E-01   0.14292726E-02
  7138.5300        1.0479093       0.95864041        1.0554982       0.96622920      -0.12818223E-01   0.47514215E-02
  7139.1300        1.0430812       0.95753232        1.0509056       0.96535660      -0.10114006E-01   0.46021763E-02
  7139.7300        1.0357725       0.95681851        1.0438316       0.96487750      -0.72956117E-02   0.94755427E-03
