# XDI/1.0 Athena/0.9.26
# Element.edge:                  K
# Element.symbol:                Fe
# Column.1:                      energy eV
# Column.2:                      norm
# Column.3:                      nbkg
# Column.4:                      flat
# Column.5:                      fbkg
# Column.6:                      nder
# Column.7:                      nsec
# Athena.e0:                     7120.140
# Athena.eshift:                 -0.675
# Athena.rbkg:                   1
# Athena.importance:             1
# Athena.standard:               None
# Athena.bkg_kweight:            2
# Athena.edge_step:              0.3486666
# Athena.fixed_step:             no
# Athena.pre_edge_range:         -215 -20
# Athena.pre_edge_line:          9.411480 - 0.0010151 * E
# Athena.normalization_range:    63.870 382.040
# Athena.post_edge_polynomial:   35.183127 - 0.00792972 * E + 4.69660366e-007 * E^2 + 0 * E^3
# Athena.spline_range_energy:    0.000 791.795
# Athena.clamps:                 0 24
# Athena.spline_range_k:         0.000 14.416
# Athena.kweight:                2
# Athena.window:                 hanning
# Athena.phase_correction:       no
# Athena.k_range:                3 9
# Athena.dk:                     1
# Athena.r_range:                1 3
# Athena.dr:                     0.0
# Athena.window:                 hanning
# Athena.plot_multiplier:        1
# Athena.y_offset:               0
# ///
#------------------------
#   e         norm       nbkg       flat       fbkg       nder       nsec
  6862.0900       0.27004101E-02   0.27004103E-02   0.27004103E-02   0.27004103E-02   0.30759486E-02  -0.22255587E-03
  6872.0600       0.33367618E-01   0.33367620E-01   0.33367620E-01   0.33367620E-01   0.85706658E-03  -0.19269399E-03
  6882.0500       0.19807459E-01   0.19807460E-01   0.19807460E-01   0.19807460E-01  -0.77022330E-03  -0.70752795E-04
  6892.0800       0.17947748E-01   0.17947749E-01   0.17947749E-01   0.17947749E-01  -0.55940438E-03   0.14099395E-04
  6902.1400       0.85690251E-02   0.85690256E-02   0.85690257E-02   0.85690256E-02  -0.48696645E-03   0.22482174E-04
  6912.1200       0.81889399E-02   0.81889404E-02   0.81889405E-02   0.81889404E-02  -0.10886161E-03   0.11157522E-04
  6922.1200       0.63939700E-02   0.63939704E-02   0.63939705E-02   0.63939704E-02  -0.26403917E-03  -0.60798745E-05
  6932.0500       0.29266393E-02   0.29266394E-02   0.29266395E-02   0.29266394E-02  -0.23003351E-03   0.12417866E-04
  6942.1100       0.17956002E-02   0.17956002E-02   0.17956003E-02   0.17956002E-02  -0.15806028E-04   0.50729470E-05
  6952.1000       0.26097284E-02   0.26097285E-02   0.26097286E-02   0.26097285E-02  -0.12832092E-03  -0.74119204E-05
  6962.1100      -0.77081832E-03  -0.77081843E-03  -0.77081837E-03  -0.77081843E-03  -0.16404444E-03   0.58928368E-05
  6972.1600      -0.68100296E-03  -0.68100307E-03  -0.68100301E-03  -0.68100307E-03  -0.10110618E-04   0.35263865E-05
  6982.1200      -0.97313178E-03  -0.97313191E-03  -0.97313185E-03  -0.97313191E-03  -0.93481442E-04  -0.72716789E-05
  6992.1000      -0.25450229E-02  -0.25450232E-02  -0.25450231E-02  -0.25450232E-02  -0.15510789E-03   0.84211581E-06
  7002.1200      -0.40752897E-02  -0.40752900E-02  -0.40752900E-02  -0.40752900E-02  -0.76639126E-04   0.10958243E-04
  7012.0600      -0.40747399E-02  -0.40747402E-02  -0.40747402E-02  -0.40747402E-02   0.63618642E-04   0.20222456E-05
  7022.1400      -0.28016445E-02  -0.28016447E-02  -0.28016447E-02  -0.28016447E-02  -0.36153769E-04  -0.26892408E-05
  7032.1300      -0.48003460E-02  -0.48003464E-02  -0.48003463E-02  -0.48003464E-02   0.96455785E-05   0.50580876E-05
  7042.1500      -0.26086364E-02  -0.26086367E-02  -0.26086366E-02  -0.26086367E-02   0.65058563E-04  -0.64896544E-05
  7052.0900      -0.35017771E-02  -0.35017774E-02  -0.35017773E-02  -0.35017774E-02  -0.11988792E-03   0.51832285E-05
  7062.0500      -0.49944061E-02  -0.49944065E-02  -0.49944065E-02  -0.49944065E-02   0.16820481E-03   0.12481692E-03
  7063.1100      -0.16481601E-02  -0.16481602E-02  -0.16481602E-02  -0.16481602E-02   0.12555946E-02  -0.44121913E-02
  7063.3500      -0.33621332E-02  -0.33621335E-02  -0.33621334E-02  -0.33621335E-02  -0.55676439E-02   0.53499247E-02
  7063.5800      -0.42649527E-02  -0.42649531E-02  -0.42649530E-02  -0.42649531E-02   0.37700592E-02   0.22362503E-01
  7063.8100      -0.16279059E-02  -0.16279061E-02  -0.16279060E-02  -0.16279061E-02   0.47191076E-02  -0.11132126E-01
  7064.0500      -0.20469721E-02  -0.20469723E-02  -0.20469723E-02  -0.20469723E-02  -0.14620398E-02  -0.74384647E-02
  7064.2800      -0.23150646E-02  -0.23150648E-02  -0.23150648E-02  -0.23150648E-02   0.12230292E-02  -0.29449753E-02
  7064.5200      -0.14721484E-02  -0.14721486E-02  -0.14721485E-02  -0.14721486E-02  -0.28461782E-02  -0.12542236E-01
  7064.7500      -0.36527684E-02  -0.36527687E-02  -0.36527686E-02  -0.36527687E-02  -0.46718215E-02   0.78881218E-02
  7064.9900      -0.36679045E-02  -0.36679048E-02  -0.36679048E-02  -0.36679048E-02   0.86123904E-03   0.97985791E-02
  7065.2200      -0.32479860E-02  -0.32479863E-02  -0.32479862E-02  -0.32479863E-02  -0.66489342E-04   0.69032945E-03
  7065.4600      -0.36991545E-02  -0.36991548E-02  -0.36991548E-02  -0.36991548E-02   0.11856939E-02   0.74160135E-03
  7065.6900      -0.26907099E-02  -0.26907101E-02  -0.26907101E-02  -0.26907101E-02   0.28206329E-03  -0.96968188E-02
  7065.9300      -0.35665848E-02  -0.35665851E-02  -0.35665850E-02  -0.35665851E-02  -0.33718109E-02   0.24986016E-03
  7066.1700      -0.43091791E-02  -0.43091795E-02  -0.43091794E-02  -0.43091795E-02   0.40199617E-03   0.81827083E-02
  7066.4000      -0.33776466E-02  -0.33776469E-02  -0.33776468E-02  -0.33776469E-02   0.47406199E-03   0.18795859E-02
  7066.6400      -0.40863700E-02  -0.40863704E-02  -0.40863703E-02  -0.40863704E-02   0.12854016E-02   0.17948158E-01
  7066.8700      -0.27735078E-02  -0.27735081E-02  -0.27735080E-02  -0.27735081E-02   0.89096962E-02   0.19753055E-01
  7067.1100       0.10118720E-03   0.10118714E-03   0.10118721E-03   0.10118714E-03   0.10569337E-01  -0.14986490E-01
  7067.3400       0.21940808E-02   0.21940809E-02   0.21940809E-02   0.21940809E-02   0.18660458E-02  -0.30439963E-01
  7067.5800       0.97822873E-03   0.97822874E-03   0.97822880E-03   0.97822874E-03  -0.37374451E-02  -0.10525245E-01
  7067.8100       0.43748157E-03   0.43748154E-03   0.43748160E-03   0.43748154E-03  -0.30808192E-02  -0.38709686E-02
  7068.0500      -0.46975629E-03  -0.46975638E-03  -0.46975632E-03  -0.46975638E-03  -0.55568004E-02  -0.94533130E-03
  7068.2800      -0.21742146E-02  -0.21742148E-02  -0.21742148E-02  -0.21742148E-02  -0.35251249E-02   0.69922276E-02
  7068.5200      -0.21265650E-02  -0.21265652E-02  -0.21265651E-02  -0.21265652E-02  -0.22704534E-02   0.50043177E-02
  7068.7500      -0.32413277E-02  -0.32413280E-02  -0.32413279E-02  -0.32413280E-02  -0.11730956E-02   0.74447084E-02
  7068.9900      -0.26779199E-02  -0.26779202E-02  -0.26779201E-02  -0.26779202E-02   0.12285596E-02  -0.53236504E-03
  7069.2200      -0.26639047E-02  -0.26639050E-02  -0.26639049E-02  -0.26639050E-02  -0.14233072E-02  -0.19574318E-02
  7069.4600      -0.33468743E-02  -0.33468746E-02  -0.33468745E-02  -0.33468746E-02   0.30856663E-03   0.11267573E-01
  7069.6900      -0.25188784E-02  -0.25188786E-02  -0.25188786E-02  -0.25188786E-02   0.38724520E-02   0.60156927E-02
  7069.9300      -0.15268218E-02  -0.15268220E-02  -0.15268219E-02  -0.15268220E-02   0.31359422E-02  -0.16342122E-01
  7070.1600      -0.10449856E-02  -0.10449857E-02  -0.10449856E-02  -0.10449857E-02  -0.38083454E-02  -0.16329844E-01
  7070.4000      -0.33167442E-02  -0.33167445E-02  -0.33167444E-02  -0.33167445E-02  -0.45390843E-02   0.13243867E-01
  7070.6300      -0.31783552E-02  -0.31783555E-02  -0.31783554E-02  -0.31783555E-02   0.24162721E-02   0.10086063E-01
  7070.8700      -0.21810963E-02  -0.21810965E-02  -0.21810964E-02  -0.21810965E-02   0.20136552E-03  -0.39832037E-02
  7071.1100      -0.30816997E-02  -0.30817000E-02  -0.30817000E-02  -0.30817000E-02   0.50433439E-03   0.55837213E-02
  7071.3400      -0.19440591E-02  -0.19440593E-02  -0.19440592E-02  -0.19440593E-02   0.28257145E-02   0.19634411E-02
  7071.5800      -0.17536139E-02  -0.17536141E-02  -0.17536140E-02  -0.17536141E-02   0.14271517E-02  -0.48839710E-02
  7071.8100      -0.12732978E-02  -0.12732979E-02  -0.12732979E-02  -0.12732979E-02   0.53024814E-03  -0.19896872E-02
  7072.0500      -0.15043973E-02  -0.15043975E-02  -0.15043974E-02  -0.15043975E-02   0.49199874E-03  -0.85667184E-02
  7072.2800      -0.10420584E-02  -0.10420585E-02  -0.10420584E-02  -0.10420585E-02  -0.34961095E-02  -0.47147990E-02
  7072.5200      -0.31475688E-02  -0.31475691E-02  -0.31475690E-02  -0.31475691E-02  -0.17239568E-02   0.12821303E-01
  7072.7500      -0.18523181E-02  -0.18523183E-02  -0.18523182E-02  -0.18523183E-02   0.25299030E-02   0.62336697E-02
  7072.9900      -0.19585144E-02  -0.19585146E-02  -0.19585145E-02  -0.19585146E-02   0.12058680E-02  -0.30032361E-02
  7073.2300      -0.12735014E-02  -0.12735016E-02  -0.12735015E-02  -0.12735016E-02   0.10883496E-02  -0.14496838E-02
  7073.4600      -0.14469900E-02  -0.14469902E-02  -0.14469901E-02  -0.14469902E-02   0.52451658E-03  -0.38018252E-02
  7073.7000      -0.10269786E-02  -0.10269788E-02  -0.10269787E-02  -0.10269788E-02  -0.69850821E-03   0.22248712E-02
  7073.9300      -0.17752889E-02  -0.17752891E-02  -0.17752890E-02  -0.17752891E-02   0.15702060E-02   0.72904768E-02
  7074.1700      -0.28898180E-03  -0.28898188E-03  -0.28898182E-03  -0.28898188E-03   0.27280159E-02  -0.27850752E-02
  7074.4000      -0.49312143E-03  -0.49312153E-03  -0.49312147E-03  -0.49312153E-03   0.26122072E-03  -0.25511741E-02
  7074.6400      -0.16620806E-03  -0.16620813E-03  -0.16620807E-03  -0.16620813E-03   0.15289641E-02  -0.18689517E-02
  7074.8700       0.22549168E-03   0.22549163E-03   0.22549170E-03   0.22549163E-03  -0.61718659E-03  -0.92227319E-02
  7075.1100      -0.45628575E-03  -0.45628585E-03  -0.45628579E-03  -0.45628585E-03  -0.28057199E-02  -0.33275242E-03
  7075.3500      -0.11212539E-02  -0.11212540E-02  -0.11212540E-02  -0.11212540E-02  -0.77690775E-03   0.56844943E-02
  7075.5800      -0.82143240E-03  -0.82143251E-03  -0.82143245E-03  -0.82143251E-03  -0.13400763E-03  -0.55002576E-02
  7075.8200      -0.11842375E-02  -0.11842376E-02  -0.11842376E-02  -0.11842376E-02  -0.33620288E-02  -0.21663883E-03
  7076.0500      -0.24015859E-02  -0.24015862E-02  -0.24015861E-02  -0.24015862E-02  -0.23582788E-03   0.12681459E-01
  7076.2900      -0.12950766E-02  -0.12950767E-02  -0.12950767E-02  -0.12950767E-02   0.25982571E-02   0.37975008E-02
  7076.5300      -0.11544225E-02  -0.11544227E-02  -0.11544226E-02  -0.11544227E-02   0.15869725E-02   0.96874114E-03
  7076.7600      -0.54919950E-03  -0.54919960E-03  -0.54919954E-03  -0.54919960E-03   0.30535654E-02   0.39803114E-02
  7077.0000       0.28075320E-03   0.28075316E-03   0.28075322E-03   0.28075316E-03   0.34577189E-02  -0.83651261E-02
  7077.2300       0.10759284E-02   0.10759284E-02   0.10759284E-02   0.10759284E-02  -0.87804387E-03  -0.20295622E-01
  7077.4700      -0.13192742E-03  -0.13192749E-03  -0.13192743E-03  -0.13192749E-03  -0.60812237E-02  -0.17318661E-02
  7077.7000      -0.17822468E-02  -0.17822469E-02  -0.17822469E-02  -0.17822469E-02  -0.16920209E-02   0.14477750E-01
  7077.9400      -0.92717726E-03  -0.92717738E-03  -0.92717732E-03  -0.92717738E-03   0.72331897E-03   0.71130322E-02
  7078.1800      -0.14350536E-02  -0.14350538E-02  -0.14350537E-02  -0.14350538E-02   0.17222345E-02  -0.67940071E-03
  7078.4100      -0.11772702E-03  -0.11772709E-03  -0.11772703E-03  -0.11772709E-03   0.40400064E-03  -0.49074301E-04
  7078.6500      -0.12451733E-02  -0.12451735E-02  -0.12451734E-02  -0.12451735E-02   0.16991696E-02   0.83754867E-02
  7078.8800       0.68088270E-03   0.68088269E-03   0.68088275E-03   0.68088269E-03   0.43404794E-02  -0.84957940E-02
  7079.1200       0.79485196E-03   0.79485195E-03   0.79485201E-03   0.79485195E-03  -0.22938535E-02  -0.94706354E-02
  7079.3600      -0.42016700E-03  -0.42016709E-03  -0.42016703E-03  -0.42016709E-03  -0.20542562E-03   0.79457084E-02
  7079.5900       0.69830192E-03   0.69830191E-03   0.69830197E-03   0.69830191E-03   0.14406294E-02  -0.20063308E-02
  7079.8300       0.25692883E-03   0.25692878E-03   0.25692884E-03   0.25692878E-03  -0.11484011E-02  -0.72166148E-02
  7080.0600       0.15855339E-03   0.15855334E-03   0.15855340E-03   0.15855334E-03  -0.19511796E-02  -0.10034804E-01
  7080.3000      -0.66012557E-03  -0.66012568E-03  -0.66012562E-03  -0.66012568E-03  -0.58647591E-02  -0.29591909E-03
  7080.5400      -0.26565310E-02  -0.26565312E-02  -0.26565312E-02  -0.26565312E-02  -0.20932207E-02   0.23872527E-01
  7080.7700      -0.16439393E-02  -0.16439395E-02  -0.16439394E-02  -0.16439395E-02   0.53553287E-02   0.12053850E-01
  7081.0100      -0.13952648E-03  -0.13952655E-03  -0.13952649E-03  -0.13952655E-03   0.35720889E-02  -0.79790665E-02
  7081.2400       0.34942493E-04   0.34942435E-04   0.34942495E-04   0.34942435E-04   0.16051675E-02  -0.81533015E-02
  7081.4800       0.61490223E-03   0.61490222E-03   0.61490228E-03   0.61490222E-03  -0.25996275E-03  -0.42738653E-02
  7081.7200      -0.89839625E-04  -0.89839692E-04  -0.89839632E-04  -0.89839692E-04  -0.44628787E-03   0.47611148E-02
  7081.9500       0.40514693E-03   0.40514690E-03   0.40514696E-03   0.40514690E-03   0.19777612E-02   0.39276266E-03
  7082.1900       0.83970813E-03   0.83970813E-03   0.83970819E-03   0.83970813E-03  -0.26168942E-03  -0.13491697E-01
  7082.4300       0.27953601E-03   0.27953597E-03   0.27953603E-03   0.27953597E-03  -0.44982536E-02  -0.47281506E-02
  7082.6600      -0.12744710E-02  -0.12744712E-02  -0.12744711E-02  -0.12744712E-02  -0.24839202E-02   0.12030275E-01
  7082.9000      -0.88790648E-03  -0.88790660E-03  -0.88790654E-03  -0.88790660E-03   0.11559756E-02   0.56486761E-02
  7083.1300      -0.73116250E-03  -0.73116261E-03  -0.73116255E-03  -0.73116261E-03   0.17095758E-03  -0.88149493E-02
  7083.3700      -0.80755642E-03  -0.80755654E-03  -0.80755648E-03  -0.80755654E-03  -0.29870505E-02  -0.37667055E-03
  7083.6100      -0.21649468E-02  -0.21649470E-02  -0.21649469E-02  -0.21649470E-02  -0.98442863E-05   0.13310980E-01
  7083.8400      -0.81218323E-03  -0.81218335E-03  -0.81218329E-03  -0.81218335E-03   0.32691100E-02   0.41128438E-02
  7084.0800      -0.62846505E-03  -0.62846516E-03  -0.62846510E-03  -0.62846516E-03   0.19231923E-02  -0.40348616E-02
  7084.3200       0.11094906E-03   0.11094901E-03   0.11094907E-03   0.11094901E-03   0.13323765E-02  -0.80332000E-02
  7084.5500      -0.22481130E-05  -0.22481736E-05  -0.22481132E-05  -0.22481736E-05  -0.18524117E-02  -0.34100299E-02
  7084.7900      -0.75968446E-03  -0.75968457E-03  -0.75968451E-03  -0.75968457E-03  -0.27033756E-03   0.85816708E-02
  7085.0300      -0.13201014E-03  -0.13201021E-03  -0.13201015E-03  -0.13201021E-03   0.22667902E-02   0.62309080E-05
  7085.2600       0.30570695E-03   0.30570691E-03   0.30570697E-03   0.30570691E-03  -0.26740903E-03  -0.78704006E-02
  7085.5000      -0.25769239E-03  -0.25769247E-03  -0.25769241E-03  -0.25769247E-03  -0.14322980E-02   0.11402333E-01
  7085.7300      -0.36747313E-03  -0.36747321E-03  -0.36747315E-03  -0.36747321E-03   0.50916873E-02   0.68427363E-02
  7085.9700       0.21354006E-02   0.21354007E-02   0.21354008E-02   0.21354007E-02   0.17837880E-02  -0.20729270E-01
  7086.2100       0.48874514E-03   0.48874511E-03   0.48874517E-03   0.48874511E-03  -0.48583624E-02  -0.72656488E-02
  7086.4400      -0.14802968E-03  -0.14802975E-03  -0.14802969E-03  -0.14802975E-03  -0.16310669E-02   0.12808012E-01
  7086.6800      -0.27785631E-03  -0.27785639E-03  -0.27785633E-03  -0.27785639E-03   0.11614033E-02   0.86791770E-02
  7086.9200       0.40944392E-03   0.40944389E-03   0.40944395E-03   0.40944389E-03   0.25349380E-02  -0.63582455E-03
  7087.1500       0.91356457E-03   0.91356457E-03   0.91356464E-03   0.91356457E-03   0.86256579E-03  -0.39815385E-02
  7087.3900       0.81484984E-03   0.81484983E-03   0.81484989E-03   0.81484983E-03   0.66361493E-03  -0.18701465E-02
  7087.6300       0.12320997E-02   0.12320998E-02   0.12320998E-02   0.12320998E-02  -0.35104548E-04  -0.58798810E-02
  7087.8600       0.79835070E-03   0.79835070E-03   0.79835076E-03   0.79835070E-03  -0.20999291E-02  -0.48091047E-02
  7088.1000       0.24513305E-03   0.24513301E-03   0.24513307E-03   0.24513301E-03  -0.22953837E-02   0.40366299E-02
  7088.3400      -0.30343349E-03  -0.30343357E-03  -0.30343351E-03  -0.30343357E-03  -0.16234677E-03   0.65072944E-02
  7088.5700       0.16883007E-03   0.16883002E-03   0.16883008E-03   0.16883002E-03   0.76304464E-03   0.50061239E-02
  7088.8100       0.55197491E-04   0.55197434E-04   0.55197495E-04   0.55197434E-04   0.21905314E-02   0.30553239E-02
  7089.0500       0.12202852E-02   0.12202852E-02   0.12202852E-02   0.12202852E-02   0.22296001E-02  -0.49951556E-02
  7089.2800       0.11031095E-02   0.11031096E-02   0.11031096E-02   0.11031096E-02  -0.15719171E-03  -0.55679649E-02
  7089.5200       0.11464051E-02   0.11464051E-02   0.11464051E-02   0.11464051E-02  -0.38734342E-03   0.50018348E-03
  7089.7600       0.91718470E-03   0.91718470E-03   0.91718476E-03   0.91718470E-03   0.82896362E-04   0.75578530E-02
  7089.9900       0.11853664E-02   0.11853664E-02   0.11853664E-02   0.11853664E-02   0.31648475E-02   0.15586227E-02
  7090.2300       0.24046630E-02   0.24046631E-02   0.24046632E-02   0.24046631E-02   0.81544905E-03  -0.13109395E-01
  7090.4700       0.15767819E-02   0.15767819E-02   0.15767820E-02   0.15767819E-02  -0.31276621E-02  -0.56522462E-02
  7090.7000       0.93466181E-03   0.93466182E-03   0.93466188E-03   0.93466182E-03  -0.18411067E-02   0.87495034E-02
  7090.9400       0.71146177E-03   0.71146175E-03   0.71146181E-03   0.71146175E-03   0.98460447E-03   0.87047233E-02
  7091.1800       0.14072720E-02   0.14072720E-02   0.14072721E-02   0.14072720E-02   0.23371605E-02   0.12843532E-02
  7091.4100       0.18099272E-02   0.18099273E-02   0.18099273E-02   0.18099273E-02   0.15882505E-02  -0.67126118E-02
  7091.6500       0.21537497E-02   0.21537498E-02   0.21537498E-02   0.21537498E-02  -0.81776704E-03  -0.36106728E-02
  7091.8900       0.14173990E-02   0.14173991E-02   0.14173991E-02   0.14173991E-02  -0.14487247E-03   0.49472986E-02
  7092.1200       0.20856596E-02   0.20856597E-02   0.20856598E-02   0.20856597E-02   0.15074633E-02   0.20442706E-02
  7092.3600       0.21259068E-02   0.21259069E-02   0.21259069E-02   0.21259069E-02   0.81593470E-03  -0.21332569E-02
  7092.6000       0.24773083E-02   0.24773084E-02   0.24773084E-02   0.24773084E-02   0.48349999E-03  -0.82261921E-02
  7092.8400       0.23579868E-02   0.23579869E-02   0.23579869E-02   0.23579869E-02  -0.31326375E-02  -0.74539296E-02
  7093.0700       0.10049687E-02   0.10049687E-02   0.10049687E-02   0.10049687E-02  -0.30198469E-02   0.83280648E-02
  7093.3100       0.93865871E-03   0.93865872E-03   0.93865878E-03   0.93865872E-03   0.78155297E-03   0.21759067E-02
  7093.5500       0.13801141E-02   0.13801141E-02   0.13801142E-02   0.13801141E-02  -0.19754117E-02   0.60774518E-02
  7093.7800       0.10215211E-04   0.10215151E-04   0.10215212E-04   0.10215151E-04   0.36379553E-02   0.24375427E-01
  7094.0200       0.30899531E-02   0.30899532E-02   0.30899533E-02   0.30899532E-02   0.94810391E-02  -0.44524004E-02
  7094.2600       0.45611140E-02   0.45611142E-02   0.45611143E-02   0.45611142E-02   0.15008031E-02  -0.27221693E-01
